PDF#37-1484: QM=Star/Calculated; d=Other/Unknown; I=(Unknown)
Baddeleyite, syn
ZrO2	
Radiation=CuKa1	Lambda=1.5406	Filter=
Calibration=	d-Cutoff=	I/Ic(RIR)=2.6
Ref= Level-1 PDF

Monoclinic,  P21/a(14)	Z=4	mp=
Cell=5.313x5.213x5.147<90x99.218x90>	Pearson=
Density(c)=5.817	Density(m)=	Mwt=	Vol=	
Ref= Ibid.

Strong Line: 3.16/X  2.84/7  1.82/2  2.62/2  1.85/2  3.70/1  2.54/1  1.80/1

d(A)     I(f)   I(v)   h  k  l  n^2  2-Theta   Theta  1/(2d)   2pi/d  
 5.087    3.0    2.0   0  0  1        17.419   8.709  0.0983  1.2351
 3.697   14.0   12.0   1  1  0        24.047  12.024  0.1352  1.6992
 3.639   10.0    9.0   0  1  1        24.440  12.220  0.1374  1.7266
 3.164  100.0  100.0  -1  1  1        28.174  14.087  0.1580  1.9854
 2.840   68.0   76.0   1  1  1        31.467  15.734  0.1760  2.2119
 2.622   21.0   25.0   2  0  0        34.159  17.080  0.1906  2.3957
 2.606   11.0   13.0   0  2  0        34.382  17.191  0.1919  2.4109
 2.539   13.0   16.0   0  0  2        35.308  17.654  0.1969  2.4738
 2.499    2.0    3.0  -2  0  1        35.899  17.950  0.2000  2.5138
 2.342    1.0    1.0  -2  1  0        38.395  19.198  0.2134  2.6823
 2.334    4.0    5.0   1  2  0        38.540  19.270  0.2142  2.6920
 2.284    1.0    1.0   0  1  2        39.410  19.705  0.2189  2.7504
 2.252    1.0    1.0  -2  1  1        39.989  19.995  0.2220  2.7891
 2.213   12.0   17.0  -1  1  2        40.724  20.362  0.2259  2.8382
 2.191    5.0    7.0   2  0  1        41.149  20.574  0.2281  2.8666
 2.180    5.0    7.0  -1  2  1        41.373  20.686  0.2293  2.8815
 2.020    7.0   11.0   2  1  1        44.825  22.412  0.2475  3.1100
 1.991    6.0   10.0  -2  0  2        45.521  22.760  0.2511  3.1558
 1.859    2.0    3.0  -2  1  2        48.948  24.474  0.2689  3.3793
 1.848   18.0   31.0   2  2  0        49.265  24.632  0.2705  3.3998
 1.818   22.0   38.0   0  2  2        50.115  25.057  0.2749  3.4547
 1.803   13.0   23.0  -2  2  1        50.558  25.279  0.2772  3.4832
 1.783    5.0    9.0  -1  2  2        51.192  25.596  0.2804  3.5240
 1.693   11.0   21.0   0  0  3        54.103  27.051  0.2952  3.7097
 1.677    1.0    2.0   2  2  1        54.678  27.339  0.2981  3.7462
 1.660   11.0   21.0   1  2  2        55.269  27.634  0.3011  3.7835
 1.657   11.0   21.0   3  1  0        55.399  27.699  0.3017  3.7916
 1.652    9.0   17.0  -3  1  1        55.569  27.784  0.3026  3.8023
 1.643    6.0   12.0   0  3  1        55.881  27.941  0.3041  3.8220
 1.610    7.0   14.0  -1  1  3        57.166  28.583  0.3106  3.9026
 1.592    4.0    8.0  -1  3  1        57.860  28.930  0.3140  3.9459
 1.582    3.0    6.0  -2  2  2        58.266  29.133  0.3160  3.9712
 1.545    8.0   16.0   1  3  1        59.773  29.887  0.3234  4.0645
 1.539    7.0   14.0  -2  0  3        60.053  30.027  0.3248  4.0818
 1.509    5.0   10.0   3  1  1        61.365  30.683  0.3312  4.1624
 1.496    5.0   11.0  -3  1  2        61.982  30.991  0.3342  4.2001
 1.477    8.0   17.0   1  1  3        62.836  31.418  0.3384  4.2521
 1.452    1.0    2.0   3  2  0        64.077  32.039  0.3444  4.3272
 1.448    2.0    4.0   2  3  0        64.248  32.124  0.3452  4.3375
 1.434    1.0    2.0   0  3  2        64.964  32.482  0.3486  4.3806
 1.426    2.0    4.0  -2  3  1        65.382  32.691  0.3506  4.4057
 1.420    6.0   13.0   0  2  3        65.698  32.849  0.3521  4.4246
 1.416    4.0    9.0  -1  3  2        65.882  32.941  0.3530  4.4356
 1.361    1.0    2.0   2  3  1        68.910  34.455  0.3672  4.6149
 1.349    1.0    2.0   3  2  1        69.618  34.809  0.3705  4.6564
 1.339    1.0    2.0  -3  2  2        70.188  35.094  0.3732  4.6896
 1.325    2.0    5.0  -2  2  3        71.069  35.535  0.3773  4.7408
 1.321    4.0   10.0  -4  0  1        71.298  35.649  0.3783  4.7540
 1.311    1.0    2.0   4  0  0        71.948  35.974  0.3813  4.7916
 1.308    1.0    2.0  -2  3  2        72.102  36.051  0.3820  4.8004
 1.303    1.0    2.0   0  4  0        72.448  36.224  0.3836  4.8203
 1.300    1.0    2.0   3  1  2        72.640  36.320  0.3845  4.8314
 1.286    1.0    2.0  -3  1  3        73.578  36.789  0.3887  4.8850
 1.270    2.0    5.0   0  0  4        74.680  37.340  0.3937  4.9476
 1.264    4.0   10.0   1  4  0        75.044  37.522  0.3954  4.9682
 1.245    1.0    3.0  -1  1  4        76.408  38.204  0.4015  5.0448
 1.232    1.0    3.0   3  3  0        77.390  38.695  0.4058  5.0995
 1.223    1.0    3.0   4  0  1        78.076  39.038  0.4088  5.1376
 1.212    1.0    3.0   0  3  3        78.864  39.432  0.4123  5.1810
